# Fitted Radiance, uW cm-2 sr-1 um-1, 8 columns for 8 wavelengths in microns: 0.47, 0.49, 0.51, 0.54, 0.59, 0.69, 0.74, 0.79. 
9.65539e+02 1.67593e+03 2.82026e+03 4.11561e+03 5.05700e+03 4.28018e+03 4.37440e+03 3.13774e+03
1.12588e+03 1.93101e+03 3.21473e+03 4.63278e+03 5.58889e+03 4.60957e+03 4.66905e+03 3.33394e+03
1.29615e+03 2.19806e+03 3.62206e+03 5.16444e+03 6.13495e+03 4.95629e+03 4.98363e+03 3.54605e+03
1.48014e+03 2.48144e+03 4.04689e+03 5.71512e+03 6.69798e+03 5.32173e+03 5.31919e+03 3.77477e+03
1.68030e+03 2.78340e+03 4.49066e+03 6.28481e+03 7.27552e+03 5.70221e+03 5.67146e+03 4.01704e+03
1.89772e+03 3.10427e+03 4.95231e+03 6.87056e+03 7.86246e+03 6.09204e+03 6.03431e+03 4.26857e+03
2.13314e+03 3.44415e+03 5.43100e+03 7.47018e+03 8.45517e+03 6.48687e+03 6.40302e+03 4.52612e+03
2.38554e+03 3.80096e+03 5.92330e+03 8.07856e+03 9.04755e+03 6.88024e+03 6.77076e+03 4.78490e+03
2.65190e+03 4.17017e+03 6.42304e+03 8.68765e+03 9.63108e+03 7.26376e+03 7.12867e+03 5.03849e+03
2.92940e+03 4.54809e+03 6.92584e+03 9.29227e+03 1.02009e+04 7.63229e+03 7.47124e+03 5.28286e+03
3.21442e+03 4.93028e+03 7.42672e+03 9.88716e+03 1.07531e+04 7.98292e+03 7.79558e+03 5.51558e+03
3.50395e+03 5.31336e+03 7.92229e+03 1.04694e+04 1.12864e+04 8.31579e+03 8.10215e+03 5.73682e+03
3.79813e+03 5.69814e+03 8.41443e+03 1.10422e+04 1.18053e+04 8.63507e+03 8.39528e+03 5.94970e+03
4.09577e+03 6.08349e+03 8.90237e+03 1.16055e+04 1.23110e+04 8.94279e+03 8.67735e+03 6.15592e+03
4.39624e+03 6.46893e+03 9.38596e+03 1.21598e+04 1.28048e+04 9.24093e+03 8.95056e+03 6.35710e+03
4.70052e+03 6.85596e+03 9.86744e+03 1.27083e+04 1.32902e+04 9.53243e+03 9.21793e+03 6.55547e+03
5.00691e+03 7.24259e+03 1.03446e+04 1.32486e+04 1.37658e+04 9.81715e+03 9.47955e+03 6.75109e+03
1.16193e+04 1.50321e+04 1.93174e+04 2.29317e+04 2.19414e+04 1.46339e+04 1.39897e+04 1.03730e+04
1.71182e+04 2.09983e+04 2.56321e+04 2.93416e+04 2.71109e+04 1.76099e+04 1.68139e+04 1.28471e+04
