# Case 2 Radiance, uW cm-2 sr-1 um-1, 8 columns for 8 wavelengths in microns: 0.47, 0.49, 0.51, 0.54, 0.59, 0.69, 0.74, 0.79. 
9.51572e+02 1.60198e+03 2.84173e+03 3.98628e+03 4.85799e+03 4.31863e+03 4.34598e+03 3.27017e+03
1.09612e+03 1.94522e+03 3.22780e+03 4.35761e+03 5.31375e+03 4.67560e+03 4.58323e+03 3.44379e+03
1.28609e+03 2.28664e+03 3.65341e+03 4.84571e+03 5.90897e+03 4.94635e+03 4.84043e+03 3.62641e+03
1.52133e+03 2.57280e+03 4.12910e+03 5.40558e+03 6.54157e+03 5.21462e+03 5.18271e+03 3.82105e+03
1.73873e+03 2.85943e+03 4.55977e+03 6.04758e+03 7.14210e+03 5.52483e+03 5.54080e+03 4.04424e+03
1.94618e+03 3.17254e+03 4.98585e+03 6.64371e+03 7.75861e+03 5.86346e+03 5.93835e+03 4.29335e+03
2.15618e+03 3.48564e+03 5.41803e+03 7.26986e+03 8.43169e+03 6.24360e+03 6.31742e+03 4.54284e+03
2.40318e+03 3.83639e+03 5.89361e+03 8.04835e+03 9.16936e+03 6.67285e+03 6.70827e+03 4.79293e+03
2.67610e+03 4.18480e+03 6.37576e+03 8.85305e+03 9.77637e+03 7.10376e+03 7.16234e+03 5.04485e+03
2.95011e+03 4.51293e+03 6.87894e+03 9.60253e+03 1.04385e+04 7.55323e+03 7.59359e+03 5.30262e+03
3.22474e+03 4.84103e+03 7.38631e+03 1.03867e+04 1.11799e+04 8.00270e+03 7.93354e+03 5.56039e+03
3.46976e+03 5.16887e+03 7.92067e+03 1.11702e+04 1.16170e+04 8.44354e+03 8.27348e+03 5.81699e+03
3.70594e+03 5.49672e+03 8.41950e+03 1.19110e+04 1.21493e+04 8.87295e+03 8.59631e+03 6.07280e+03
3.94212e+03 5.82456e+03 8.82023e+03 1.24438e+04 1.29446e+04 9.30236e+03 8.90418e+03 6.32862e+03
4.17830e+03 6.19025e+03 9.22119e+03 1.29011e+04 1.33744e+04 9.64262e+03 9.20590e+03 6.49342e+03
4.43181e+03 6.55862e+03 9.62418e+03 1.34244e+04 1.37784e+04 9.89444e+03 9.44964e+03 6.65179e+03
4.68571e+03 6.90985e+03 1.00272e+04 1.39654e+04 1.42056e+04 1.01463e+04 9.69338e+03 6.81017e+03
1.13146e+04 1.55755e+04 1.83274e+04 2.29368e+04 2.15586e+04 1.49205e+04 1.35246e+04 9.86684e+03
1.83438e+04 2.23297e+04 2.54118e+04 2.98213e+04 2.63096e+04 1.77513e+04 1.54736e+04 1.11065e+04
